 C10H8O4 Density=1.4 Thickness=2. microns
 Photon Energy (eV), Transmission
    1400.0      0.72280    
    1400.9      0.72320    
    1401.7      0.72360    
    1402.6      0.72400    
    1403.4      0.72440    
    1404.3      0.72480    
    1405.2      0.72520    
    1406.0      0.72559    
    1406.9      0.72599    
    1407.7      0.72639    
    1408.6      0.72678    
    1409.5      0.72717    
    1410.3      0.72757    
    1411.2      0.72796    
    1412.0      0.72835    
    1412.9      0.72874    
    1413.8      0.72913    
    1414.6      0.72952    
    1415.5      0.72991    
    1416.3      0.73030    
    1417.2      0.73069    
    1418.1      0.73108    
    1418.9      0.73146    
    1419.8      0.73185    
    1420.6      0.73224    
    1421.5      0.73262    
    1422.4      0.73300    
    1423.2      0.73339    
    1424.1      0.73377    
    1424.9      0.73415    
    1425.8      0.73453    
    1426.7      0.73491    
    1427.5      0.73529    
    1428.4      0.73567    
    1429.2      0.73605    
    1430.1      0.73643    
    1431.0      0.73680    
    1431.8      0.73718    
    1432.7      0.73756    
    1433.5      0.73793    
    1434.4      0.73831    
    1435.3      0.73868    
    1436.1      0.73905    
    1437.0      0.73942    
    1437.8      0.73980    
    1438.7      0.74017    
    1439.6      0.74054    
    1440.4      0.74091    
    1441.3      0.74128    
    1442.1      0.74165    
    1443.0      0.74201    
    1443.9      0.74238    
    1444.7      0.74275    
    1445.6      0.74311    
    1446.4      0.74348    
    1447.3      0.74384    
    1448.2      0.74421    
    1449.0      0.74457    
    1449.9      0.74494    
    1450.7      0.74530    
    1451.6      0.74566    
    1452.5      0.74602    
    1453.3      0.74638    
    1454.2      0.74674    
    1455.0      0.74710    
    1455.9      0.74746    
    1456.8      0.74782    
    1457.6      0.74817    
    1458.5      0.74853    
    1459.3      0.74889    
    1460.2      0.74924    
    1461.1      0.74960    
    1461.9      0.74995    
    1462.8      0.75031    
    1463.6      0.75066    
    1464.5      0.75101    
    1465.4      0.75136    
    1466.2      0.75172    
    1467.1      0.75207    
    1467.9      0.75242    
    1468.8      0.75276    
    1469.7      0.75311    
    1470.5      0.75346    
    1471.4      0.75381    
    1472.2      0.75416    
    1473.1      0.75451    
    1474.0      0.75485    
    1474.8      0.75520    
    1475.7      0.75555    
    1476.5      0.75589    
    1477.4      0.75623    
    1478.3      0.75658    
    1479.1      0.75692    
    1480.0      0.75726    
    1480.8      0.75761    
    1481.7      0.75795    
    1482.6      0.75829    
    1483.4      0.75863    
    1484.3      0.75897    
    1485.1      0.75931    
    1486.0      0.75964    
    1486.9      0.75998    
    1487.7      0.76032    
    1488.6      0.76066    
    1489.4      0.76099    
    1490.3      0.76133    
    1491.2      0.76166    
    1492.0      0.76200    
    1492.9      0.76233    
    1493.7      0.76266    
    1494.6      0.76300    
    1495.5      0.76333    
    1496.3      0.76367    
    1497.2      0.76400    
    1498.0      0.76434    
    1498.9      0.76467    
    1499.8      0.76500    
    1500.6      0.76533    
    1501.5      0.76566    
    1502.3      0.76599    
    1503.2      0.76632    
    1504.1      0.76665    
    1504.9      0.76698    
    1505.8      0.76731    
    1506.6      0.76764    
    1507.5      0.76796    
    1508.4      0.76829    
    1509.2      0.76861    
    1510.1      0.76894    
    1510.9      0.76926    
    1511.8      0.76959    
    1512.7      0.76991    
    1513.5      0.77023    
    1514.4      0.77056    
    1515.2      0.77088    
    1516.1      0.77120    
    1517.0      0.77152    
    1517.8      0.77184    
    1518.7      0.77216    
    1519.5      0.77248    
    1520.4      0.77280    
    1521.3      0.77312    
    1522.1      0.77343    
    1523.0      0.77375    
    1523.8      0.77407    
    1524.7      0.77438    
    1525.6      0.77470    
    1526.4      0.77501    
    1527.3      0.77533    
    1528.1      0.77564    
    1529.0      0.77595    
    1529.9      0.77627    
    1530.7      0.77658    
    1531.6      0.77689    
    1532.4      0.77720    
    1533.3      0.77751    
    1534.2      0.77782    
    1535.0      0.77813    
    1535.9      0.77844    
    1536.7      0.77875    
    1537.6      0.77906    
    1538.5      0.77936    
    1539.3      0.77967    
    1540.2      0.77998    
    1541.0      0.78028    
    1541.9      0.78059    
    1542.8      0.78089    
    1543.6      0.78119    
    1544.5      0.78150    
    1545.3      0.78180    
    1546.2      0.78210    
    1547.1      0.78241    
    1547.9      0.78271    
    1548.8      0.78301    
    1549.6      0.78331    
    1550.5      0.78361    
    1551.4      0.78391    
    1552.2      0.78420    
    1553.1      0.78450    
    1553.9      0.78480    
    1554.8      0.78510    
    1555.7      0.78539    
    1556.5      0.78569    
    1557.4      0.78599    
    1558.2      0.78628    
    1559.1      0.78657    
    1560.0      0.78687    
    1560.8      0.78716    
    1561.7      0.78746    
    1562.5      0.78775    
    1563.4      0.78804    
    1564.3      0.78833    
    1565.1      0.78862    
    1566.0      0.78891    
    1566.8      0.78920    
    1567.7      0.78949    
    1568.6      0.78978    
    1569.4      0.79007    
    1570.3      0.79036    
    1571.1      0.79065    
    1572.0      0.79093    
    1572.9      0.79122    
    1573.7      0.79151    
    1574.6      0.79179    
    1575.4      0.79208    
    1576.3      0.79236    
    1577.2      0.79264    
    1578.0      0.79293    
    1578.9      0.79321    
    1579.7      0.79349    
    1580.6      0.79378    
    1581.5      0.79406    
    1582.3      0.79434    
    1583.2      0.79462    
    1584.0      0.79490    
    1584.9      0.79518    
    1585.8      0.79546    
    1586.6      0.79574    
    1587.5      0.79602    
    1588.3      0.79629    
    1589.2      0.79657    
    1590.1      0.79685    
    1590.9      0.79712    
    1591.8      0.79740    
    1592.6      0.79768    
    1593.5      0.79795    
    1594.4      0.79823    
    1595.2      0.79850    
    1596.1      0.79877    
    1596.9      0.79905    
    1597.8      0.79932    
    1598.7      0.79959    
    1599.5      0.79986    
    1600.4      0.80013    
    1601.2      0.80040    
    1602.1      0.80068    
    1603.0      0.80094    
    1603.8      0.80121    
    1604.7      0.80148    
    1605.5      0.80175    
    1606.4      0.80202    
    1607.3      0.80229    
    1608.1      0.80255    
    1609.0      0.80282    
    1609.8      0.80309    
    1610.7      0.80335    
    1611.6      0.80362    
    1612.4      0.80388    
    1613.3      0.80415    
    1614.1      0.80441    
    1615.0      0.80467    
    1615.9      0.80494    
    1616.7      0.80520    
    1617.6      0.80546    
    1618.4      0.80572    
    1619.3      0.80598    
    1620.2      0.80625    
    1621.0      0.80651    
    1621.9      0.80677    
    1622.7      0.80702    
    1623.6      0.80728    
    1624.5      0.80754    
    1625.3      0.80780    
    1626.2      0.80806    
    1627.0      0.80831    
    1627.9      0.80857    
    1628.8      0.80883    
    1629.6      0.80908    
    1630.5      0.80934    
    1631.3      0.80959    
    1632.2      0.80985    
    1633.1      0.81010    
    1633.9      0.81036    
    1634.8      0.81061    
    1635.6      0.81086    
    1636.5      0.81111    
    1637.4      0.81137    
    1638.2      0.81162    
    1639.1      0.81187    
    1639.9      0.81212    
    1640.8      0.81237    
    1641.7      0.81262    
    1642.5      0.81287    
    1643.4      0.81312    
    1644.2      0.81337    
    1645.1      0.81361    
    1646.0      0.81386    
    1646.8      0.81411    
    1647.7      0.81436    
    1648.5      0.81460    
    1649.4      0.81485    
    1650.3      0.81510    
    1651.1      0.81534    
    1652.0      0.81559    
    1652.8      0.81583    
    1653.7      0.81607    
    1654.6      0.81632    
    1655.4      0.81656    
    1656.3      0.81680    
    1657.1      0.81705    
    1658.0      0.81729    
    1658.9      0.81753    
    1659.7      0.81777    
    1660.6      0.81801    
    1661.4      0.81825    
    1662.3      0.81849    
    1663.2      0.81873    
    1664.0      0.81897    
    1664.9      0.81921    
    1665.7      0.81945    
    1666.6      0.81968    
    1667.5      0.81992    
    1668.3      0.82016    
    1669.2      0.82040    
    1670.0      0.82063    
    1670.9      0.82087    
    1671.8      0.82110    
    1672.6      0.82134    
    1673.5      0.82157    
    1674.3      0.82181    
    1675.2      0.82204    
    1676.1      0.82228    
    1676.9      0.82251    
    1677.8      0.82274    
    1678.6      0.82297    
    1679.5      0.82321    
    1680.4      0.82344    
    1681.2      0.82367    
    1682.1      0.82390    
    1682.9      0.82413    
    1683.8      0.82436    
    1684.7      0.82459    
    1685.5      0.82482    
    1686.4      0.82505    
    1687.2      0.82528    
    1688.1      0.82550    
    1689.0      0.82573    
    1689.8      0.82596    
    1690.7      0.82619    
    1691.5      0.82641    
    1692.4      0.82664    
    1693.3      0.82686    
    1694.1      0.82709    
    1695.0      0.82732    
    1695.8      0.82754    
    1696.7      0.82776    
    1697.6      0.82799    
    1698.4      0.82821    
    1699.3      0.82844    
    1700.1      0.82866    
    1701.0      0.82888    
    1701.9      0.82910    
    1702.7      0.82932    
    1703.6      0.82955    
    1704.4      0.82977    
    1705.3      0.82999    
    1706.2      0.83021    
    1707.0      0.83043    
    1707.9      0.83065    
    1708.7      0.83087    
    1709.6      0.83108    
    1710.5      0.83130    
    1711.3      0.83152    
    1712.2      0.83174    
    1713.0      0.83196    
    1713.9      0.83217    
    1714.8      0.83239    
    1715.6      0.83261    
    1716.5      0.83282    
    1717.3      0.83304    
    1718.2      0.83325    
    1719.1      0.83347    
    1719.9      0.83368    
    1720.8      0.83390    
    1721.6      0.83411    
    1722.5      0.83432    
    1723.4      0.83454    
    1724.2      0.83475    
    1725.1      0.83496    
    1725.9      0.83517    
    1726.8      0.83539    
    1727.7      0.83560    
    1728.5      0.83581    
    1729.4      0.83602    
    1730.2      0.83624    
    1731.1      0.83645    
    1732.0      0.83666    
    1732.8      0.83687    
    1733.7      0.83708    
    1734.5      0.83729    
    1735.4      0.83750    
    1736.3      0.83771    
    1737.1      0.83792    
    1738.0      0.83813    
    1738.8      0.83834    
    1739.7      0.83854    
    1740.6      0.83875    
    1741.4      0.83896    
    1742.3      0.83916    
    1743.1      0.83937    
    1744.0      0.83958    
    1744.9      0.83978    
    1745.7      0.83999    
    1746.6      0.84019    
    1747.4      0.84040    
    1748.3      0.84060    
    1749.2      0.84081    
    1750.0      0.84101    
    1750.9      0.84122    
    1751.7      0.84142    
    1752.6      0.84162    
    1753.5      0.84182    
    1754.3      0.84203    
    1755.2      0.84223    
    1756.0      0.84243    
    1756.9      0.84263    
    1757.8      0.84283    
    1758.6      0.84304    
    1759.5      0.84324    
    1760.3      0.84344    
    1761.2      0.84364    
    1762.1      0.84384    
    1762.9      0.84404    
    1763.8      0.84423    
    1764.6      0.84443    
    1765.5      0.84463    
    1766.4      0.84483    
    1767.2      0.84503    
    1768.1      0.84523    
    1768.9      0.84542    
    1769.8      0.84562    
    1770.7      0.84582    
    1771.5      0.84601    
    1772.4      0.84621    
    1773.2      0.84640    
    1774.1      0.84660    
    1775.0      0.84679    
    1775.8      0.84699    
    1776.7      0.84718    
    1777.5      0.84738    
    1778.4      0.84757    
    1779.3      0.84776    
    1780.1      0.84796    
    1781.0      0.84815    
    1781.8      0.84834    
    1782.7      0.84853    
    1783.6      0.84873    
    1784.4      0.84892    
    1785.3      0.84911    
    1786.1      0.84930    
    1787.0      0.84949    
    1787.9      0.84968    
    1788.7      0.84987    
    1789.6      0.85006    
    1790.4      0.85025    
    1791.3      0.85044    
    1792.2      0.85063    
    1793.0      0.85082    
    1793.9      0.85101    
    1794.7      0.85119    
    1795.6      0.85138    
    1796.5      0.85157    
    1797.3      0.85176    
    1798.2      0.85194    
    1799.0      0.85213    
    1799.9      0.85231    
    1800.8      0.85250    
    1801.6      0.85269    
    1802.5      0.85287    
    1803.3      0.85306    
    1804.2      0.85324    
    1805.1      0.85343    
    1805.9      0.85361    
    1806.8      0.85379    
    1807.6      0.85398    
    1808.5      0.85416    
    1809.4      0.85434    
    1810.2      0.85453    
    1811.1      0.85471    
    1811.9      0.85489    
    1812.8      0.85507    
    1813.7      0.85525    
    1814.5      0.85543    
    1815.4      0.85562    
    1816.2      0.85580    
    1817.1      0.85598    
    1818.0      0.85616    
    1818.8      0.85634    
    1819.7      0.85652    
    1820.5      0.85669    
    1821.4      0.85687    
    1822.3      0.85705    
    1823.1      0.85723    
    1824.0      0.85741    
    1824.8      0.85759    
    1825.7      0.85776    
    1826.6      0.85794    
    1827.4      0.85812    
    1828.3      0.85829    
    1829.1      0.85847    
    1830.0      0.85865    
